#R dependence of screened Coulomb at omega=calc_ifreq
#1:R [AA], 2:Re[W(R)] [eV], 3:Im[W(R)] [eV]
    31.61568     0.12188     0.00061
    28.88812     0.12540     0.00058
    27.58569     0.12964     0.00048
    24.57145     0.13812     0.00040
    31.12439     0.13291     0.00050
    28.02182     0.13660     0.00047
    25.89887     0.14374     0.00032
    22.52824     0.15542     0.00022
    39.18838     0.11943     0.00065
    36.52050     0.12088     0.00065
    34.32722     0.12402     0.00057
    31.76654     0.12800     0.00055
    27.30104     0.13483     0.00035
    24.06255     0.14154     0.00027
    24.88364     0.14206     0.00021
    21.60807     0.15476     0.00006
    25.03341     0.15458     0.00010
    21.02032     0.16342    -0.00000
    21.00298     0.16844    -0.00014
    16.81734     0.19321    -0.00042
    33.25390     0.13018     0.00043
    30.04209     0.13225     0.00043
    29.34076     0.13657     0.00031
    26.39247     0.14231     0.00027
    26.89896     0.14012     0.00023
    23.57756     0.14743     0.00012
    26.64270     0.13842     0.00027
    23.71653     0.14749     0.00017
    22.73824     0.16962    -0.00019
    18.19059     0.18270    -0.00037
    21.06921     0.16852    -0.00015
    17.04514     0.19120    -0.00040
    30.13846     0.14012     0.00023
    26.52771     0.14206     0.00023
    27.85346     0.13946     0.00026
    24.82791     0.14477     0.00022
    30.56426     0.13018     0.00043
    27.66241     0.13416     0.00038
    32.13850     0.12466     0.00055
    29.84043     0.12892     0.00052
    25.29419     0.15458     0.00010
    21.26861     0.16276     0.00001
    26.05974     0.14384     0.00030
    23.03611     0.15312     0.00024
    30.71227     0.13483     0.00035
    27.15371     0.13607     0.00035
    30.38359     0.12812     0.00049
    27.72543     0.13120     0.00048
    37.11073     0.11943     0.00065
    34.74088     0.12163     0.00063
    39.85405     0.11948     0.00067
    38.08990     0.12358     0.00064
    31.54326     0.13291     0.00050
    28.39405     0.13627     0.00047
    33.86327     0.13031     0.00055
    31.67334     0.13575     0.00053
    34.79329     0.12188     0.00061
    31.67556     0.12289     0.00061
    36.09601     0.11892     0.00067
    33.96154     0.12143     0.00067
    26.66192     0.13264     0.00054
    25.07099     0.14098     0.00049
    22.68765     0.14964     0.00031
    20.86707     0.16229     0.00023
    25.35902     0.14719     0.00041
    23.28732     0.16097     0.00033
    19.68644     0.17735     0.00006
    17.38521     0.20435    -0.00014
    34.25094     0.12551     0.00064
    32.46335     0.13189     0.00061
    29.29519     0.13547     0.00051
    27.69264     0.14315     0.00045
    21.30794     0.15634     0.00013
    19.24610     0.17444    -0.00005
    19.24395     0.17536    -0.00017
    17.20355     0.19931    -0.00040
    17.27422     0.19192    -0.00028
    14.01091     0.23908    -0.00074
    12.46214     0.25522    -0.00114
     8.65575     0.36879    -0.00240
    27.21387     0.13997     0.00037
    24.90029     0.15121     0.00028
    23.19710     0.15620     0.00013
    21.25340     0.17128    -0.00003
    20.72706     0.16438    -0.00007
    18.56563     0.18643    -0.00034
    21.40893     0.16425    -0.00004
    19.72060     0.18028    -0.00018
    13.64294     0.22992    -0.00093
     9.09530     0.33590    -0.00225
    12.46861     0.25473    -0.00116
     8.94486     0.35899    -0.00221
    23.24811     0.15305     0.00012
    20.45951     0.17169    -0.00007
    21.22299     0.16190     0.00004
    19.20792     0.18009    -0.00015
    25.25086     0.14366     0.00029
    23.48117     0.15556     0.00018
    27.90640     0.13739     0.00044
    26.72554     0.14433     0.00041
    17.50067     0.19029    -0.00025
    14.19702     0.23862    -0.00069
    19.69872     0.17670     0.00003
    17.81885     0.19970    -0.00009
    23.93254     0.14515     0.00027
    21.20310     0.16102     0.00014
    24.39544     0.14220     0.00039
    22.77266     0.15213     0.00033
    32.83311     0.12680     0.00060
    31.47157     0.13321     0.00057
    36.49116     0.12982     0.00061
    35.66538     0.13570     0.00058
    25.66767     0.14641     0.00041
    23.51168     0.16034     0.00034
    29.20660     0.14639     0.00047
    28.06109     0.15629     0.00043
    28.93909     0.12803     0.00059
    26.70137     0.13607     0.00054
    31.18128     0.12760     0.00064
    30.01093     0.13304     0.00062
    24.24074     0.14689     0.00047
    24.24942     0.14845     0.00047
    20.83116     0.16664     0.00022
    20.79812     0.16549     0.00023
    21.97455     0.17351     0.00027
    21.55979     0.17854     0.00023
    16.42587     0.22307    -0.00022
    16.19933     0.22507    -0.00033
    31.24057     0.13708     0.00057
    30.65029     0.13991     0.00056
    26.52370     0.14883     0.00041
    26.26976     0.14977     0.00038
    18.11516     0.18943    -0.00014
    18.09054     0.19266    -0.00012
    16.93850     0.21199    -0.00050
    17.04302     0.20676    -0.00041
    11.64366     0.30335    -0.00123
    10.77990     0.33807    -0.00141
     5.91044     0.56568    -0.00432
     5.69821     0.58259    -0.00444
    23.25545     0.16170     0.00017
    22.42700     0.16834     0.00011
    19.51357     0.18789    -0.00020
    19.29509     0.19117    -0.00030
    17.35271     0.20679    -0.00053
    17.28909     0.21119    -0.00051
    19.29509     0.19117    -0.00030
    19.51357     0.18789    -0.00020
     4.54765     0.59493    -0.00555
     0.00000     1.37932    -0.01286
     5.69821     0.58259    -0.00444
     5.91044     0.56568    -0.00432
    18.38671     0.19279    -0.00033
    17.28909     0.21119    -0.00051
    17.04302     0.20676    -0.00041
    16.93850     0.21199    -0.00050
    22.50526     0.16516     0.00010
    22.42700     0.16834     0.00011
    26.26976     0.14977     0.00038
    26.52370     0.14883     0.00041
    11.75584     0.30378    -0.00116
    10.77990     0.33807    -0.00141
    16.19933     0.22507    -0.00033
    16.42587     0.22307    -0.00022
    19.17650     0.17829    -0.00003
    18.09054     0.19266    -0.00012
    20.79812     0.16549     0.00023
    20.83116     0.16664     0.00022
    30.72896     0.13800     0.00055
    30.65029     0.13991     0.00056
    35.21807     0.13864     0.00058
    35.47741     0.13831     0.00058
    22.09368     0.17288     0.00026
    21.55979     0.17854     0.00023
    26.92172     0.16376     0.00039
    27.14954     0.16376     0.00039
    25.09617     0.14349     0.00050
    24.24942     0.14845     0.00047
    28.40900     0.13831     0.00058
    28.51971     0.13864     0.00058
    25.09617     0.14349     0.00050
    26.70137     0.13607     0.00054
    22.77266     0.15213     0.00033
    24.39544     0.14220     0.00039
    22.09368     0.17288     0.00026
    23.51168     0.16034     0.00034
    17.81885     0.19970    -0.00009
    19.69872     0.17670     0.00003
    30.72896     0.13800     0.00055
    31.47157     0.13321     0.00057
    26.72554     0.14433     0.00041
    27.90640     0.13739     0.00044
    19.17650     0.17829    -0.00003
    21.20310     0.16102     0.00014
    19.20792     0.18009    -0.00015
    21.22299     0.16190     0.00004
    11.75584     0.30378    -0.00116
    14.19702     0.23862    -0.00069
     8.94486     0.35899    -0.00221
    12.46861     0.25473    -0.00116
    22.50526     0.16516     0.00010
    23.48117     0.15556     0.00018
    19.72060     0.18028    -0.00018
    21.40893     0.16425    -0.00004
    18.38671     0.19279    -0.00033
    20.45951     0.17169    -0.00007
    21.25340     0.17128    -0.00003
    23.19710     0.15620     0.00013
     4.54765     0.59493    -0.00555
     9.09530     0.33590    -0.00225
     8.65575     0.36879    -0.00240
    12.46214     0.25522    -0.00114
    17.35271     0.20679    -0.00053
    18.56563     0.18643    -0.00034
    17.20355     0.19931    -0.00040
    19.24395     0.17536    -0.00017
    23.25545     0.16170     0.00017
    24.90029     0.15121     0.00028
    27.69264     0.14315     0.00045
    29.29519     0.13547     0.00051
    11.64366     0.30335    -0.00123
    14.01091     0.23908    -0.00074
    17.38521     0.20435    -0.00014
    19.68644     0.17735     0.00006
    18.11516     0.18943    -0.00014
    19.24610     0.17444    -0.00005
    20.86707     0.16229     0.00023
    22.68765     0.14964     0.00031
    31.24057     0.13708     0.00057
    32.46335     0.13189     0.00061
    36.25561     0.13304     0.00062
    37.55959     0.12760     0.00064
    21.97455     0.17351     0.00027
    23.28732     0.16097     0.00033
    27.60401     0.15629     0.00043
    29.19279     0.14639     0.00047
    24.24074     0.14689     0.00047
    25.07099     0.14098     0.00049
    28.41336     0.13570     0.00058
    29.85869     0.12982     0.00061
    28.93909     0.12803     0.00059
    31.67556     0.12289     0.00061
    27.72543     0.13120     0.00048
    30.38359     0.12812     0.00049
    25.66767     0.14641     0.00041
    28.39405     0.13627     0.00047
    23.03611     0.15312     0.00024
    26.05974     0.14384     0.00030
    32.83311     0.12680     0.00060
    34.74088     0.12163     0.00063
    29.84043     0.12892     0.00052
    32.13850     0.12466     0.00055
    23.93254     0.14515     0.00027
    27.15371     0.13607     0.00035
    24.82791     0.14477     0.00022
    27.85346     0.13946     0.00026
    17.50067     0.19029    -0.00025
    21.26861     0.16276     0.00001
    17.04514     0.19120    -0.00040
    21.06921     0.16852    -0.00015
    25.25086     0.14366     0.00029
    27.66241     0.13416     0.00038
    23.71653     0.14749     0.00017
    26.64270     0.13842     0.00027
    23.24811     0.15305     0.00012
    26.52771     0.14206     0.00023
    26.39247     0.14231     0.00027
    29.34076     0.13657     0.00031
    13.64294     0.22992    -0.00093
    18.19059     0.18270    -0.00037
    16.81734     0.19321    -0.00042
    21.00298     0.16844    -0.00014
    20.72706     0.16438    -0.00007
    23.57756     0.14743     0.00012
    21.60807     0.15476     0.00006
    24.88364     0.14206     0.00021
    27.21387     0.13997     0.00037
    30.04209     0.13225     0.00043
    31.76654     0.12800     0.00055
    34.32722     0.12402     0.00057
    17.27422     0.19192    -0.00028
    21.02032     0.16342    -0.00000
    22.52824     0.15542     0.00022
    25.89887     0.14374     0.00032
    21.30794     0.15634     0.00013
    24.06255     0.14154     0.00027
    24.57145     0.13812     0.00040
    27.58569     0.12964     0.00048
    34.25094     0.12551     0.00064
    36.52050     0.12088     0.00065
    39.42176     0.12143     0.00067
    41.57220     0.11892     0.00067
    25.35902     0.14719     0.00041
    28.02182     0.13660     0.00047
    31.05854     0.13575     0.00053
    33.65694     0.13031     0.00055
    26.66192     0.13264     0.00054
    28.88812     0.12540     0.00058
    31.19320     0.12358     0.00064
    33.69210     0.11948     0.00067
