#R dependence of screened Coulomb at omega=calc_ifreq
#1:R [AA], 2:Re[W(R)] [eV], 3:Im[W(R)] [eV]
    36.31816     0.11865     0.00068
    33.69210     0.11948     0.00067
    31.82453     0.12154     0.00062
    28.88812     0.12554     0.00059
    36.53927     0.13023     0.00056
    33.65694     0.13031     0.00055
    31.13704     0.13260     0.00051
    28.02182     0.13696     0.00048
    44.14808     0.11957     0.00067
    41.57220     0.11892     0.00067
    39.03915     0.11931     0.00066
    36.52050     0.12088     0.00065
    30.75929     0.12739     0.00051
    27.58569     0.12964     0.00048
    27.42912     0.13423     0.00037
    24.06255     0.14181     0.00028
    29.57013     0.14305     0.00033
    25.89887     0.14374     0.00032
    24.92428     0.15406     0.00012
    21.02032     0.16426     0.00001
    37.42294     0.12436     0.00056
    34.32722     0.12402     0.00057
    32.98345     0.12983     0.00044
    30.04209     0.13231     0.00043
    28.38436     0.13883     0.00027
    24.88364     0.14206     0.00021
    26.91327     0.13981     0.00024
    23.57756     0.14736     0.00014
    25.41808     0.16774    -0.00012
    21.00298     0.16844    -0.00014
    22.47968     0.16974    -0.00018
    18.19059     0.18326    -0.00034
    32.92888     0.13823     0.00028
    29.34076     0.13657     0.00031
    29.73505     0.14021     0.00024
    26.52771     0.14213     0.00023
    29.96034     0.13650     0.00031
    26.64270     0.13842     0.00027
    30.47465     0.13034     0.00043
    27.66241     0.13402     0.00038
    25.49858     0.16864    -0.00014
    21.06921     0.16852    -0.00015
    24.93721     0.15530     0.00008
    21.26861     0.16272     0.00001
    31.63161     0.14251     0.00022
    27.85346     0.13946     0.00026
    30.21342     0.13538     0.00035
    27.15371     0.13606     0.00035
    34.95689     0.12416     0.00057
    32.13850     0.12466     0.00055
    36.95263     0.11945     0.00065
    34.74088     0.12161     0.00064
    29.77732     0.14422     0.00031
    26.05974     0.14384     0.00030
    31.15776     0.13334     0.00049
    28.39405     0.13628     0.00047
    33.90012     0.13022     0.00047
    30.38359     0.12812     0.00049
    34.26281     0.12235     0.00061
    31.67556     0.12285     0.00061
    31.50664     0.12367     0.00064
    29.85869     0.12982     0.00061
    26.99839     0.13245     0.00055
    25.07099     0.14097     0.00049
    31.17408     0.13645     0.00052
    29.19279     0.14639     0.00047
    25.46905     0.14777     0.00042
    23.28732     0.16154     0.00034
    39.35485     0.12192     0.00066
    37.55959     0.12760     0.00064
    34.15052     0.12586     0.00063
    32.46335     0.13173     0.00060
    24.84288     0.13793     0.00041
    22.68765     0.14964     0.00031
    21.58340     0.15581     0.00014
    19.24610     0.17465    -0.00003
    22.54934     0.15598     0.00023
    19.68644     0.17735     0.00006
    17.25549     0.19379    -0.00026
    14.01091     0.24308    -0.00070
    31.58483     0.12818     0.00055
    29.29519     0.13547     0.00051
    26.97195     0.14060     0.00037
    24.90029     0.15116     0.00027
    21.77341     0.15517     0.00007
    19.24395     0.17536    -0.00017
    20.86112     0.16428    -0.00008
    18.56563     0.18586    -0.00032
    16.65935     0.19530    -0.00044
    12.46214     0.25522    -0.00114
    13.38818     0.23406    -0.00098
     9.09530     0.33688    -0.00219
    26.05402     0.14302     0.00026
    23.19710     0.15620     0.00013
    22.82819     0.15490     0.00009
    20.45951     0.17173    -0.00009
    23.73619     0.14857     0.00015
    21.40893     0.16425    -0.00004
    25.23770     0.14425     0.00026
    23.48117     0.15507     0.00017
    16.70353     0.19462    -0.00045
    12.46861     0.25473    -0.00116
    17.12154     0.19328    -0.00034
    14.19702     0.23665    -0.00072
    24.33997     0.14622     0.00019
    21.22299     0.16190     0.00004
    23.39185     0.14720     0.00024
    21.20310     0.16063     0.00012
    29.75137     0.12964     0.00050
    27.90640     0.13739     0.00044
    32.72780     0.12719     0.00059
    31.47157     0.13296     0.00057
    22.64716     0.15524     0.00021
    19.69872     0.17670     0.00003
    25.28761     0.14767     0.00038
    23.51168     0.15987     0.00033
    27.17478     0.13242     0.00046
    24.39544     0.14220     0.00039
    28.38385     0.12913     0.00057
    26.70137     0.13572     0.00054
    28.84054     0.13539     0.00059
    28.51971     0.13864     0.00058
    24.70776     0.14605     0.00048
    24.24942     0.14790     0.00046
    27.82045     0.15698     0.00042
    27.14954     0.16376     0.00039
    22.20988     0.17335     0.00029
    21.55979     0.17829     0.00023
    36.24918     0.13358     0.00061
    35.47741     0.13831     0.00058
    31.20753     0.13737     0.00057
    30.65029     0.13954     0.00055
    21.29911     0.16097     0.00024
    20.83116     0.16664     0.00022
    18.56823     0.18753    -0.00014
    18.09054     0.19097    -0.00015
    17.54997     0.20461    -0.00010
    16.42587     0.22307    -0.00022
    11.82088     0.30690    -0.00114
    10.77990     0.33622    -0.00146
    27.57129     0.14312     0.00045
    26.52370     0.14883     0.00041
    23.07624     0.16261     0.00017
    22.42700     0.16762     0.00009
    17.54822     0.19878    -0.00040
    16.93850     0.21199    -0.00050
    17.64928     0.20556    -0.00056
    17.28909     0.20932    -0.00055
     8.62774     0.37545    -0.00238
     5.91044     0.56568    -0.00432
     4.31274     0.60986    -0.00588
     0.00000     1.41093    -0.01303
    20.94663     0.17253    -0.00005
    19.51357     0.18789    -0.00020
    17.98688     0.19738    -0.00037
    17.28909     0.20932    -0.00055
    19.86555     0.18152    -0.00022
    19.29509     0.19117    -0.00030
    22.59706     0.16579     0.00007
    22.42700     0.16762     0.00009
     8.56077     0.37525    -0.00248
     5.69821     0.58259    -0.00444
    11.39643     0.30969    -0.00146
    10.77990     0.33622    -0.00146
    18.70184     0.18334    -0.00021
    17.04302     0.20676    -0.00041
    18.62674     0.18277    -0.00008
    18.09054     0.19097    -0.00015
    26.71615     0.14498     0.00039
    26.26976     0.14977     0.00038
    30.69478     0.13825     0.00054
    30.65029     0.13954     0.00055
    17.45130     0.20399    -0.00018
    16.19933     0.22507    -0.00033
    21.76166     0.17466     0.00022
    21.55979     0.17829     0.00023
    22.20740     0.15418     0.00029
    20.79812     0.16549     0.00023
    24.55189     0.14507     0.00047
    24.24942     0.14790     0.00046
    28.91944     0.13726     0.00059
    30.01093     0.13304     0.00062
    25.64143     0.14185     0.00051
    26.70137     0.13572     0.00054
    27.23197     0.16326     0.00040
    28.06109     0.15629     0.00043
    22.43511     0.17056     0.00029
    23.51168     0.15987     0.00033
    35.27962     0.13868     0.00057
    35.66538     0.13570     0.00058
    30.77354     0.13763     0.00056
    31.47157     0.13296     0.00057
    21.34442     0.16180     0.00024
    22.77266     0.15213     0.00033
    19.72723     0.17455    -0.00001
    21.20310     0.16063     0.00012
    16.52208     0.22019    -0.00022
    17.81885     0.19970    -0.00009
    12.13109     0.28864    -0.00106
    14.19702     0.23665    -0.00072
    26.23356     0.14878     0.00039
    26.72554     0.14433     0.00041
    22.42740     0.16386     0.00012
    23.48117     0.15507     0.00017
    17.52847     0.19979    -0.00041
    19.20792     0.18009    -0.00015
    18.79512     0.18994    -0.00033
    20.45951     0.17173    -0.00009
     6.06554     0.54920    -0.00420
     8.94486     0.35899    -0.00221
     4.83786     0.58225    -0.00506
     9.09530     0.33688    -0.00219
    19.08297     0.19020    -0.00027
    19.72060     0.18028    -0.00018
    17.06981     0.20557    -0.00050
    18.56563     0.18586    -0.00032
    19.78188     0.18481    -0.00022
    21.25340     0.17128    -0.00003
    23.44700     0.16127     0.00016
    24.90029     0.15116     0.00027
     5.74584     0.58009    -0.00437
     8.65575     0.36879    -0.00240
    11.49168     0.30840    -0.00126
    14.01091     0.24308    -0.00070
    16.50855     0.21195    -0.00051
    17.20355     0.19931    -0.00040
    17.66865     0.19109    -0.00016
    19.24610     0.17465    -0.00003
    26.60470     0.14839     0.00039
    27.69264     0.14315     0.00045
    31.28385     0.13685     0.00057
    32.46335     0.13173     0.00060
    16.17563     0.22484    -0.00028
    17.38521     0.20435    -0.00014
    21.75143     0.17422     0.00025
    23.28732     0.16154     0.00034
    20.33020     0.16775     0.00019
    20.86707     0.16229     0.00023
    23.77805     0.14787     0.00045
    25.07099     0.14097     0.00049
    31.72286     0.12671     0.00065
    33.96154     0.12143     0.00067
    29.49477     0.12691     0.00060
    31.67556     0.12285     0.00061
    29.57417     0.14566     0.00048
    31.67334     0.13575     0.00053
    26.05452     0.14468     0.00043
    28.39405     0.13628     0.00047
    36.61624     0.12970     0.00061
    38.08990     0.12358     0.00064
    32.94784     0.12627     0.00061
    34.74088     0.12161     0.00064
    24.95928     0.14002     0.00041
    27.72543     0.13120     0.00048
    24.47442     0.14324     0.00030
    27.15371     0.13606     0.00035
    20.08497     0.17356     0.00009
    23.03611     0.15312     0.00024
    17.88972     0.18565    -0.00019
    21.26861     0.16272     0.00001
    27.95839     0.13646     0.00046
    29.84043     0.12892     0.00052
    25.27672     0.14227     0.00031
    27.66241     0.13402     0.00038
    21.72564     0.15900     0.00006
    24.82791     0.14477     0.00022
    23.67414     0.15166     0.00013
    26.52771     0.14213     0.00023
    12.82936     0.24869    -0.00102
    17.04514     0.19120    -0.00040
    13.91614     0.22649    -0.00082
    18.19059     0.18326    -0.00034
    21.33089     0.16341    -0.00000
    23.71653     0.14749     0.00017
    20.60772     0.16307    -0.00004
    23.57756     0.14736     0.00014
    23.52560     0.15470     0.00014
    26.39247     0.14231     0.00027
    27.46535     0.13958     0.00037
    30.04209     0.13231     0.00043
    12.57742     0.25366    -0.00108
    16.81734     0.19321    -0.00042
    17.31149     0.19203    -0.00025
    21.02032     0.16426     0.00001
    18.99354     0.17621    -0.00015
    21.60807     0.15476     0.00006
    21.04414     0.15673     0.00014
    24.06255     0.14181     0.00028
    29.45024     0.13501     0.00051
    31.76654     0.12800     0.00055
    34.36041     0.12519     0.00064
    36.52050     0.12088     0.00065
    19.60109     0.17770     0.00006
    22.52824     0.15542     0.00022
    25.26122     0.14718     0.00041
    28.02182     0.13696     0.00048
    22.33639     0.15042     0.00031
    24.57145     0.13812     0.00040
    26.33335     0.13296     0.00054
    28.88812     0.12554     0.00059
