#R dependence of screened Coulomb at omega=calc_ifreq
#1:R [AA], 2:Re[W(R)] [eV], 3:Im[W(R)] [eV]
    28.88812     0.12557     0.00059
    26.66192     0.13264     0.00054
    24.84288     0.13793     0.00041
    22.33639     0.15042     0.00031
    28.02182     0.13698     0.00048
    25.35902     0.14719     0.00041
    22.54934     0.15598     0.00023
    19.60109     0.17770     0.00006
    36.52050     0.12087     0.00066
    34.25094     0.12551     0.00064
    31.58483     0.12818     0.00055
    29.45024     0.13501     0.00051
    24.06255     0.14209     0.00028
    21.30794     0.15634     0.00013
    21.77341     0.15517     0.00007
    18.99354     0.17621    -0.00015
    21.02032     0.16426     0.00001
    17.27422     0.19192    -0.00028
    16.65935     0.19530    -0.00044
    12.57742     0.25366    -0.00108
    30.04209     0.13235     0.00043
    27.21387     0.13997     0.00037
    26.05402     0.14302     0.00026
    23.52560     0.15470     0.00014
    23.57756     0.14798     0.00013
    20.72706     0.16438    -0.00007
    23.73619     0.14857     0.00015
    21.33089     0.16341    -0.00000
    18.19059     0.18354    -0.00035
    13.64294     0.22992    -0.00093
    16.70353     0.19462    -0.00045
    12.82936     0.24869    -0.00102
    26.52771     0.14218     0.00023
    23.24811     0.15305     0.00012
    24.33997     0.14622     0.00019
    21.72564     0.15900     0.00006
    27.66241     0.13440     0.00038
    25.25086     0.14366     0.00029
    29.75137     0.12964     0.00050
    27.95839     0.13646     0.00046
    21.26861     0.16324     0.00001
    17.50067     0.19029    -0.00025
    22.64716     0.15524     0.00021
    20.08497     0.17356     0.00009
    27.15371     0.13610     0.00035
    23.93254     0.14515     0.00027
    27.17478     0.13242     0.00046
    24.95928     0.14002     0.00041
    34.74088     0.12166     0.00064
    32.83311     0.12680     0.00060
    37.93803     0.12367     0.00064
    36.61624     0.12970     0.00061
    28.39405     0.13650     0.00048
    25.66767     0.14641     0.00041
    31.29205     0.13645     0.00052
    29.57417     0.14566     0.00048
    31.67556     0.12284     0.00061
    28.93909     0.12803     0.00059
    33.42029     0.12192     0.00066
    31.72286     0.12671     0.00065
    25.07099     0.14080     0.00049
    24.24074     0.14689     0.00047
    21.29911     0.16097     0.00024
    20.33020     0.16775     0.00019
    23.28732     0.16137     0.00034
    21.97455     0.17351     0.00027
    17.54997     0.20461    -0.00010
    16.17563     0.22484    -0.00028
    32.46335     0.13149     0.00060
    31.24057     0.13708     0.00057
    27.57129     0.14312     0.00045
    26.60470     0.14839     0.00039
    19.24610     0.17511    -0.00003
    18.11516     0.18943    -0.00014
    17.54822     0.19878    -0.00040
    16.50855     0.21195    -0.00051
    14.01091     0.24227    -0.00072
    11.64366     0.30335    -0.00123
     8.62774     0.37545    -0.00238
     5.74584     0.58009    -0.00437
    24.90029     0.15066     0.00028
    23.25545     0.16170     0.00017
    20.94663     0.17253    -0.00005
    19.78188     0.18481    -0.00022
    18.56563     0.18762    -0.00032
    17.35271     0.20679    -0.00053
    19.86555     0.18152    -0.00022
    19.08297     0.19020    -0.00027
     9.09530     0.33620    -0.00223
     4.54765     0.59493    -0.00555
     8.56077     0.37525    -0.00248
     6.06554     0.54920    -0.00420
    20.45951     0.17080    -0.00009
    18.38671     0.19279    -0.00033
    18.70184     0.18334    -0.00021
    17.52847     0.19979    -0.00041
    23.48117     0.15551     0.00018
    22.50526     0.16516     0.00010
    26.71615     0.14498     0.00039
    26.23356     0.14878     0.00039
    14.19702     0.23949    -0.00068
    11.75584     0.30378    -0.00116
    17.45130     0.20399    -0.00018
    16.52208     0.22019    -0.00022
    21.20310     0.16005     0.00012
    19.17650     0.17829    -0.00003
    22.20740     0.15418     0.00029
    21.34442     0.16180     0.00024
    31.47157     0.13291     0.00057
    30.72896     0.13800     0.00055
    35.57074     0.13539     0.00059
    35.27962     0.13868     0.00057
    23.51168     0.16022     0.00033
    22.09368     0.17288     0.00026
    27.71681     0.15698     0.00042
    27.23197     0.16326     0.00040
    26.70137     0.13548     0.00054
    25.09617     0.14349     0.00050
    29.47865     0.13358     0.00061
    28.91944     0.13726     0.00059
    24.24942     0.14735     0.00046
    25.09617     0.14349     0.00050
    21.34442     0.16180     0.00024
    22.20740     0.15418     0.00029
    21.55979     0.17807     0.00025
    22.09368     0.17288     0.00026
    16.52208     0.22019    -0.00022
    17.45130     0.20399    -0.00018
    30.65029     0.13917     0.00055
    30.72896     0.13800     0.00055
    26.23356     0.14878     0.00039
    26.71615     0.14498     0.00039
    18.09054     0.18896    -0.00016
    19.17650     0.17829    -0.00003
    17.52847     0.19979    -0.00041
    18.70184     0.18334    -0.00021
    10.77990     0.33409    -0.00150
    11.75584     0.30378    -0.00116
     6.06554     0.54920    -0.00420
     8.56077     0.37525    -0.00248
    22.42700     0.16680     0.00009
    22.50526     0.16516     0.00010
    19.08297     0.19020    -0.00027
    19.86555     0.18152    -0.00022
    17.28909     0.20658    -0.00055
    18.38671     0.19279    -0.00033
    19.78188     0.18481    -0.00022
    20.94663     0.17253    -0.00005
     0.00000     1.41424    -0.01308
     4.54765     0.59493    -0.00555
     5.74584     0.58009    -0.00437
     8.62774     0.37545    -0.00238
    17.28909     0.20658    -0.00055
    17.35271     0.20679    -0.00053
    16.50855     0.21195    -0.00051
    17.54822     0.19878    -0.00040
    22.42700     0.16680     0.00009
    23.25545     0.16170     0.00017
    26.60470     0.14839     0.00039
    27.57129     0.14312     0.00045
    10.77990     0.33409    -0.00150
    11.64366     0.30335    -0.00123
    16.17563     0.22484    -0.00028
    17.54997     0.20461    -0.00010
    18.09054     0.18896    -0.00016
    18.11516     0.18943    -0.00014
    20.33020     0.16775     0.00019
    21.29911     0.16097     0.00024
    30.65029     0.13917     0.00055
    31.24057     0.13708     0.00057
    35.45011     0.13726     0.00059
    36.24918     0.13358     0.00061
    21.55979     0.17807     0.00025
    21.97455     0.17351     0.00027
    26.88307     0.16326     0.00040
    27.82045     0.15698     0.00042
    24.24942     0.14735     0.00046
    24.24074     0.14689     0.00047
    28.04486     0.13868     0.00057
    28.84054     0.13539     0.00059
    26.70137     0.13548     0.00054
    28.93909     0.12803     0.00059
    24.95928     0.14002     0.00041
    27.17478     0.13242     0.00046
    23.51168     0.16022     0.00033
    25.66767     0.14641     0.00041
    20.08497     0.17356     0.00009
    22.64716     0.15524     0.00021
    31.47157     0.13291     0.00057
    32.83311     0.12680     0.00060
    27.95839     0.13646     0.00046
    29.75137     0.12964     0.00050
    21.20310     0.16005     0.00012
    23.93254     0.14515     0.00027
    21.72564     0.15900     0.00006
    24.33997     0.14622     0.00019
    14.19702     0.23949    -0.00068
    17.50067     0.19029    -0.00025
    12.82936     0.24869    -0.00102
    16.70353     0.19462    -0.00045
    23.48117     0.15551     0.00018
    25.25086     0.14366     0.00029
    21.33089     0.16341    -0.00000
    23.73619     0.14857     0.00015
    20.45951     0.17080    -0.00009
    23.24811     0.15305     0.00012
    23.52560     0.15470     0.00014
    26.05402     0.14302     0.00026
     9.09530     0.33620    -0.00223
    13.64294     0.22992    -0.00093
    12.57742     0.25366    -0.00108
    16.65935     0.19530    -0.00044
    18.56563     0.18762    -0.00032
    20.72706     0.16438    -0.00007
    18.99354     0.17621    -0.00015
    21.77341     0.15517     0.00007
    24.90029     0.15066     0.00028
    27.21387     0.13997     0.00037
    29.45024     0.13501     0.00051
    31.58483     0.12818     0.00055
    14.01091     0.24227    -0.00072
    17.27422     0.19192    -0.00028
    19.60109     0.17770     0.00006
    22.54934     0.15598     0.00023
    19.24610     0.17511    -0.00003
    21.30794     0.15634     0.00013
    22.33639     0.15042     0.00031
    24.84288     0.13793     0.00041
    32.46335     0.13149     0.00060
    34.25094     0.12551     0.00064
    37.59776     0.12671     0.00065
    39.35485     0.12192     0.00066
    23.28732     0.16137     0.00034
    25.35902     0.14719     0.00041
    29.02802     0.14566     0.00048
    31.17408     0.13645     0.00052
    25.07099     0.14080     0.00049
    26.66192     0.13264     0.00054
    29.48706     0.12970     0.00061
    31.50664     0.12367     0.00064
    31.67556     0.12284     0.00061
    34.79329     0.12188     0.00061
    30.91594     0.12739     0.00051
    33.90012     0.13022     0.00047
    28.39405     0.13650     0.00048
    31.54326     0.13291     0.00050
    26.44393     0.14305     0.00033
    29.77732     0.14422     0.00031
    34.74088     0.12166     0.00064
    37.11073     0.11943     0.00065
    32.25822     0.12436     0.00056
    34.95689     0.12416     0.00057
    27.15371     0.13610     0.00035
    30.71227     0.13483     0.00035
    28.32329     0.13883     0.00027
    31.63161     0.14251     0.00022
    21.26861     0.16324     0.00001
    25.29419     0.15458     0.00010
    21.39727     0.16774    -0.00012
    25.49858     0.16864    -0.00014
    27.66241     0.13440     0.00038
    30.56426     0.13018     0.00043
    26.67026     0.13823     0.00028
    29.96034     0.13650     0.00031
    26.52771     0.14218     0.00023
    30.13846     0.14012     0.00023
    29.68221     0.13650     0.00031
    32.92888     0.13823     0.00028
    18.19059     0.18354    -0.00035
    22.73824     0.16962    -0.00019
    21.18530     0.16864    -0.00014
    25.41808     0.16774    -0.00012
    23.57756     0.14798     0.00013
    26.89896     0.14012     0.00023
    24.78761     0.14251     0.00022
    28.38436     0.13883     0.00027
    30.04209     0.13235     0.00043
    33.25390     0.13018     0.00043
    34.52928     0.12416     0.00057
    37.42294     0.12436     0.00056
    21.02032     0.16426     0.00001
    25.03341     0.15458     0.00010
    25.92688     0.14422     0.00031
    29.57013     0.14305     0.00033
    24.06255     0.14209     0.00028
    27.30104     0.13483     0.00035
    27.38541     0.13022     0.00047
    30.75929     0.12739     0.00051
    36.52050     0.12087     0.00066
    39.18838     0.11943     0.00065
    41.66439     0.11865     0.00068
    44.14808     0.11957     0.00067
    28.02182     0.13698     0.00048
    31.12439     0.13291     0.00050
    33.58574     0.13023     0.00056
    36.53927     0.13023     0.00056
    28.88812     0.12557     0.00059
    31.61568     0.12188     0.00061
    33.43513     0.11957     0.00067
    36.31816     0.11865     0.00068
